# Emission spectrum of  in ethanol
#
# Data from PhotochemCAD 2.1a has been munged on 26 February 2012 by Scott Prahl to make
# the information available to non-Windows users.  Although I have tried to be as careful
# as possible, I may have introduced some error; the cautious user is advised to compare
# these results with the original sources at www.photochemcad.com:
#
# H. Du, R. A. Fuh, J. Li, A. Corkan, J. S. Lindsey, "PhotochemCAD: A computer-aided design
#     and research tool in photochemistry," Photochem. Photobiol., 68, 141-142, 1998. 
# J. M. Dixon, M. Taniguchi and J. S. Lindsey "PhotochemCAD 2. A refined program with accompanying 
#     spectral databases for photochemical calculations", Photochem. Photobiol., 81, 212-213, 2005.
#
# The spectral absorption measurements were made by  on on 06-24-1997 
# using a Spex FluoroMax.   The excitation and emission monochromators were set at 1 mm, giving a spectral bandwidth of 4.25 nm.  The data interval was 0.5 nm and the integration time was 2.0 sec. Samples were prepared in 1cm pathlength quartz cells with absorbance less than 0.1 at the excitation and all emission wavelengths to uniformly illuminate across the sample, and to avoid the inner-filter effect.  The dark counts were subtracted and the spectra were corrected for wavelength-dependent instrument sensitivity.
#
##Wavelength (nm)	Emission (AU)
460	151014
460.5	161619
461	169035
461.5	181723
462	191963
462.5	207605
463	219034
463.5	235411
464	251363
464.5	273037
465	287740
465.5	311434
466	332393
466.5	361633
467	382264
467.5	415899
468	448326
468.5	486430
469	516329
469.5	560951
470	604745
470.5	654161
471	693445
471.5	755205
472	814009
472.5	883725
473	939502
473.5	1021330
474	1100431
474.5	1191899
475	1266550
475.5	1380003
476	1478213
476.5	1612642
477	1701563
477.5	1853660
478	1968514
478.5	2142818
479	2256514
479.5	2433491
480	2584960
480.5	2777348
481	2926926
481.5	3111158
482	3282674
482.5	3511931
483	3680203
483.5	3897692
484	4088765
484.5	4323625
485	4503803
485.5	4724506
486	4912197
486.5	5158387
487	5338411
487.5	5556474
488	5760502
488.5	6006892
489	6172732
489.5	6409681
490	6601645
490.5	6855704
491	7022624
491.5	7255940
492	7462905
492.5	7695486
493	7865325
493.5	8092661
494	8293206
494.5	8496996
495	8654257
495.5	8868383
496	9056987
496.5	9250974
497	9407676
497.5	9593256
498	9771218
498.5	9955899
499	10097120
499.5	10267030
500	10424230
500.5	10596420
501	10704630
501.5	10877010
502	11005890
502.5	11153720
503	11263010
503.5	11398440
504	11510060
504.5	11629570
505	11716310
505.5	11822510
506	11910050
506.5	12008130
507	12088480
507.5	12170110
508	12240660
508.5	12318960
509	12374140
509.5	12432590
510	12491080
510.5	12550030
511	12598660
511.5	12649490
512	12699980
512.5	12748540
513	12786440
513.5	12822740
514	12865800
514.5	12894340
515	12925980
515.5	12963550
516	12987760
516.5	13024150
517	13052660
517.5	13076920
518	13096850
518.5	13116250
519	13138510
519.5	13158280
520	13169990
520.5	13187120
521	13207620
521.5	13212380
522	13230260
522.5	13239960
523	13251420
523.5	13258450
524	13267040
524.5	13270620
525	13283390
525.5	13292950
526	13303260
526.5	13303730
527	13309450
527.5	13315040
528	13318860
528.5	13319990
529	13326740
529.5	13329100
530	13335800
530.5	13330200
531	13341770
531.5	13336420
532	13337930
532.5	13332060
533	13332350
533.5	13332350
534	13334380
534.5	13316720
535	13316280
535.5	13313550
536	13320340
536.5	13311360
537	13314570
537.5	13298060
538	13295550
538.5	13280280
539	13280720
539.5	13265760
540	13253850
540.5	13226990
541	13221910
541.5	13191020
542	13170990
542.5	13145800
543	13131180
543.5	13099950
544	13069140
544.5	13039200
545	13011810
545.5	12979640
546	12956330
546.5	12912530
547	12891100
547.5	12845690
548	12808270
548.5	12765060
549	12732260
549.5	12675440
550	12639240
550.5	12576290
551	12542420
551.5	12488960
552	12441380
552.5	12372980
553	12332100
553.5	12272330
554	12211780
554.5	12138630
555	12091940
555.5	12032390
556	11975630
556.5	11900050
557	11865960
557.5	11794140
558	11735330
558.5	11658810
559	11618750
559.5	11541060
560	11490730
560.5	11405430
561	11366410
561.5	11285770
562	11226770
562.5	11146500
563	11103810
563.5	11015010
564	10954910
564.5	10869500
565	10826530
565.5	10743160
566	10681120
566.5	10609340
567	10559880
567.5	10478330
568	10417410
568.5	10338930
569	10291320
569.5	10213490
570	10153230
570.5	10075970
571	10031780
571.5	9954030
572	9888980
572.5	9811269
573	9770186
573.5	9682079
574	9626983
574.5	9545169
575	9487519
575.5	9419259
576	9340732
576.5	9267241
577	9205557
577.5	9127384
578	9066813
578.5	8980213
579	8927080
579.5	8852099
580	8788072
580.5	8712914
581	8668359
581.5	8597224
582	8539829
582.5	8459085
583	8418710
583.5	8343574
584	8287906
584.5	8214488
585	8177371
585.5	8097598
586	8040200
586.5	7969831
587	7919690
587.5	7842371
588	7781036
588.5	7711437
589	7664119
589.5	7587750
590	7531362
590.5	7463614
591	7422723
591.5	7358104
592	7293739
592.5	7227822
593	7176990
593.5	7103910
594	7042830
594.5	6978422
595	6936205
595.5	6867505
596	6805903
596.5	6746930
597	6700535
597.5	6636886
598	6580270
598.5	6506213
599	6456326
599.5	6395876
600	6328236
600.5	6260539
601	6206576
601.5	6152840
602	6098559
602.5	6026131
603	5981954
603.5	5920942
604	5864991
604.5	5792291
605	5764356
605.5	5710015
606	5655548
606.5	5597022
607	5559508
607.5	5501140
608	5450091
608.5	5392226
609	5352410
609.5	5282561
610	5240147
610.5	5180663
611	5143177
611.5	5084186
612	5034888
612.5	4977597
613	4941954
613.5	4876899
614	4836697
614.5	4782441
615	4749702
615.5	4692182
616	4646193
616.5	4593386
617	4555023
617.5	4505492
618	4453449
618.5	4408641
619	4374503
619.5	4318212
620	4280743
620.5	4235519
621	4206583
621.5	4156542
622	4121010
622.5	4078800
623	4036062
623.5	3999454
624	3946773
624.5	3895384
625	3859396
625.5	3814468
626	3766088
626.5	3708101
627	3674555
627.5	3622816
628	3581965
628.5	3531317
629	3507957
629.5	3460656
630	3424673
630.5	3374825
631	3352421
631.5	3314249
632	3283197
632.5	3237826
633	3215648
633.5	3176888
634	3146277
634.5	3102858
635	3079829
635.5	3039433
636	3009236
636.5	2969485
637	2942977
637.5	2898837
638	2866822
638.5	2834320
639	2807308
639.5	2769979
640	2743201
640.5	2707788
641	2683460
641.5	2646666
642	2620850
642.5	2590280
643	2562747
643.5	2536598
644	2509078
644.5	2482218
645	2456539
645.5	2425566
646	2406823
646.5	2376176
647	2354582
647.5	2326980
648	2300643
648.5	2267770
649	2248203
649.5	2217181
650	2190738
650.5	2163859
651	2144340
651.5	2123319
652	2097151
652.5	2069823
653	2059122
653.5	2031723
654	2013425
654.5	1987048
655	1968910
655.5	1948498
656	1925171
656.5	1903285
657	1889150
657.5	1867055
658	1844778
658.5	1818927
659	1807570
659.5	1780972
660	1767000
660.5	1742636
661	1721106
661.5	1701073
662	1683274
662.5	1661727
663	1646180
663.5	1622355
664	1606530
664.5	1585468
665	1571914
665.5	1550702
666	1537312
666.5	1520276
667	1507463
667.5	1490507
668	1470423
668.5	1458055
669	1442953
669.5	1424923
670	1405536
670.5	1389708
671	1377833
671.5	1358561
672	1344710
672.5	1329477
673	1314895
673.5	1299627
674	1283699
674.5	1263686
675	1251171
675.5	1236270
676	1224312
676.5	1204075
677	1192479
677.5	1178978
678	1163558
678.5	1149376
679	1139652
679.5	1126722
680	1111032
680.5	1095063
681	1088892
681.5	1075962
682	1059789
682.5	1046513
683	1038628
683.5	1023062
684	1010339
684.5	997197
685	987245
685.5	974891
686	969193
686.5	954935
687	943645
687.5	933261
688	924114
688.5	912951
689	906698
689.5	897362
690	884622
690.5	876508
691	864240
691.5	857859
692	849059
692.5	838229
693	830235
693.5	820727
694	813206
694.5	802589
695	793883
695.5	785778
696	777655
696.5	767302
697	758821
697.5	751826
698	742519
698.5	733333
699	726052
699.5	718371
700	711490
700.5	702008
701	694675
701.5	686378
702	682252
702.5	673277
703	669134
703.5	661535
704	651759
704.5	644025
705	637341
705.5	632489
706	624099
706.5	617889
707	611706
707.5	603425
708	596950
708.5	592043
709	582471
709.5	577113
710	570877
710.5	564330
711	560298
711.5	548863
712	550002
712.5	543352
713	537964
713.5	533355
714	524884
714.5	520207
715	514666
715.5	507118
716	505213
716.5	497388
717	491617
717.5	487760
718	481974
718.5	477352
719	472736
719.5	468100
720	462406
720.5	457612
721	453222
721.5	447654
722	444025
722.5	439878
723	434266
723.5	428732
724	427697
724.5	418445
725	416652
725.5	411245
726	409560
726.5	402084
727	402908
727.5	394730
728	390582
728.5	390271
729	387509
729.5	380661
730	381045
730.5	372527
731	369288
731.5	365090
732	361260
732.5	358883
733	357389
733.5	353387
734	347262
734.5	343666
735	339823
735.5	337294
736	335236
736.5	333193
737	327564
737.5	325088
738	324359
738.5	321727
739	315017
739.5	314044
740	307306
740.5	307209
741	307252
741.5	303376
742	300681
742.5	296876
743	297633
743.5	292290
744	289409
744.5	287506
745	286244
745.5	279276
746	279040
746.5	277062
747	273351
747.5	270470
748	269714
748.5	262393
749	267384
749.5	260152
750	259024
750.5	257366
751	256391
751.5	251483
752	248827
752.5	246684
753	243886
753.5	243678
754	241222
754.5	237722
755	237405
755.5	230536
756	231902
756.5	230982
757	227257
757.5	225777
758	226139
758.5	223637
759	222378
759.5	219813
760	215591
760.5	214397
761	212784
761.5	209577
762	213311
762.5	210614
763	208496
763.5	207410
764	207349
764.5	202927
765	201465
765.5	200162
766	200644
766.5	198215
767	196177
767.5	195140
768	192884
768.5	191290
769	190471
769.5	187771
770	186110
770.5	183721
771	184218
771.5	185012
772	182223
772.5	180425
773	180613
773.5	178999
774	177198
774.5	176582
775	175169
775.5	175122
776	174258
776.5	172746
777	171884
777.5	170742
778	168161
778.5	169776
779	168621
779.5	166121
780	166472
780.5	164462
781	163931
781.5	162483
782	163335
782.5	160446
783	161292
783.5	158621
784	157894
784.5	155933
785	157158
785.5	155270
786	155682
786.5	153959
787	153568
787.5	151419
788	149765
788.5	148256
789	150484
789.5	149344
790	148922
790.5	148249
791	148520
791.5	146778
792	145850
792.5	145974
793	142845
793.5	145434
794	144113
794.5	141729
795	139705
795.5	141522
796	142350
796.5	140110
797	137434
797.5	140137
798	137315
798.5	137207
799	136188
799.5	136605
800	133541
